# Molecular absorption and scattering optical depth at 470nm

wavelength 470.0e-9

(ilayer pressure_base molecular_absorption_od molecular_scattering_od) {
01 0.004 -.000000E+00 3.65363425e-09
02 0.006 -.000000E+00 3.65363425e-09
03 0.012 -.000000E+00 1.09609028e-08
04 0.026 -.000000E+00 2.55754398e-08
05 0.062 -.000000E+00 6.57654166e-08
06 0.164 -.000000E+00 1.86335347e-07
07 0.448 -.000000E+00 5.18816064e-07
08 1.2 -.000000E+00 1.37376648e-06
09 3 -.000000E+00 3.28827083e-06
10 6.7 0.596046E-07 6.75922337e-06
11 13.9 0.596046E-07 1.31530833e-05
12 27.2 0.536442E-06 2.42966678e-05
13 51.5 0.268221E-05 4.43916562e-05
14 95.1 0.768903E-05 7.96492268e-05
15 129 0.774863E-05 6.19291006e-05
16 176 0.137092E-04 8.58604050e-05
17 241 0.243786E-04 1.18743113e-04
18 333 0.451217E-04 1.68067176e-04
19 464 0.761776E-04 2.39313044e-04
20 652 0.117309E-03 3.43441620e-04
21 930 0.165595E-03 5.07855161e-04
22 1320 0.203869E-03 7.12458680e-04
23 1907 0.260745E-03 1.07234165e-03
24 2770 0.315537E-03 1.57654318e-03
25 3220 0.133225E-03 8.22067707e-04
26 3760 0.134060E-03 9.86481249e-04
27 4370 0.128456E-03 1.11435845e-03
28 5100 0.128874E-03 1.33357650e-03
29 5950 0.124343E-03 1.55279456e-03
30 6950 0.115997E-03 1.82681713e-03
31 8120 0.965642E-04 2.13737604e-03
32 9500 0.771314E-04 2.52100764e-03
33 11100 0.683689E-04 2.92290740e-03
34 13000 0.687861E-04 3.47095254e-03
35 15300 0.711109E-04 4.20167939e-03
36 17900 0.631829E-04 4.74972453e-03
37 20900 0.522746E-04 5.48045138e-03
38 24300 0.463139E-04 6.21117823e-03
39 28100 0.407108E-04 6.94190508e-03
40 32400 0.379093E-04 7.85531365e-03
41 37200 0.365383E-04 8.76872221e-03
42 42600 0.367171E-04 9.86481249e-03
43 48700 0.382669E-04 1.11435845e-02
44 55400 0.408300E-04 1.22396748e-02
45 62800 0.488174E-04 1.35184467e-02
46 71000 0.628253E-04 1.49799004e-02
47 80200 0.885764E-04 1.68067176e-02
48 90200 0.123270E-03 1.82681713e-02
49 101300 0.173584E-03 2.02776701e-02
 0  
