# Molecular absorption and scattering optical depth at 865nm

wavelength 865.0e-9

(ilayer pressure_base molecular_absorption_od molecular_scattering_od) {
01 0.004 -.000000E+00 3.06828331e-10
02 0.006 -.000000E+00 3.06828331e-10
03 0.012 -.000000E+00 9.20484992e-10
04 0.026 -.000000E+00 2.14779831e-09
05 0.062 -.000000E+00 5.52290995e-09
06 0.164 -.000000E+00 1.56482449e-08
07 0.448 -.000000E+00 4.35696229e-08
08 1.2 -.000000E+00 1.15367452e-07
09 3 -.000000E+00 2.76145497e-07
10 6.7 -.000000E+00 5.67632411e-07
11 13.9 0.596046E-07 1.10458199e-06
12 27.2 0.596046E-07 2.04040840e-06
13 51.5 0.417233E-06 3.72796422e-06
14 95.1 0.143051E-05 6.68885761e-06
15 129 0.160933E-05 5.20074020e-06
16 176 0.274182E-05 7.21046577e-06
17 241 0.464917E-05 9.97192074e-06
18 333 0.876192E-05 1.41141032e-05
19 464 0.148417E-04 2.00972556e-05
20 652 0.234249E-04 2.88418631e-05
21 930 0.332003E-04 4.26491379e-05
22 1320 0.413665E-04 5.98315245e-05
23 1907 0.535860E-04 9.00541150e-05
24 2770 0.654480E-04 1.32396425e-04
25 3220 0.278358E-04 6.90363744e-05
26 3760 0.280742E-04 8.28436492e-05
27 4370 0.270609E-04 9.35826408e-05
28 5100 0.270609E-04 1.11992341e-04
29 5950 0.262264E-04 1.30402040e-04
30 6950 0.246170E-04 1.53414165e-04
31 8120 0.205042E-04 1.79494573e-04
32 9500 0.165702E-04 2.11711548e-04
33 11100 0.146628E-04 2.45462664e-04
34 13000 0.146628E-04 2.91486914e-04
35 15300 0.152589E-04 3.52852580e-04
36 17900 0.134707E-04 3.98876830e-04
37 20900 0.109673E-04 4.60242496e-04
38 24300 0.977521E-05 5.21608162e-04
39 28100 0.864271E-05 5.82973828e-04
40 32400 0.798705E-05 6.59680911e-04
41 37200 0.816587E-05 7.36387993e-04
42 42600 0.864271E-05 8.28436492e-04
43 48700 0.971560E-05 9.35826408e-04
44 55400 0.117422E-04 1.02787491e-03
45 62800 0.159742E-04 1.13526482e-03
46 71000 0.235441E-04 1.25799616e-03
47 80200 0.371940E-04 1.41141032e-03
48 90200 0.562684E-04 1.53414165e-03
49 101300 0.826155E-04 1.70289723e-03
}
